File: Si_sus_bias/materials/Si.csv
wavelength (nm),refractive index
2119.87,3.45032
2134.57,3.44987
2149.36,3.44943
2164.26,3.44899
2179.26,3.44856
2194.37,3.44813
2209.58,3.44771
2224.9,3.4473
2240.32,3.44689
2255.85,3.44648
2271.49,3.44609
2287.23,3.4457
2303.08,3.44531
2319.05,3.44493
2335.12,3.44456
2351.31,3.44419
2367.61,3.44382
2384.02,3.44346
2400.55,3.44311
2417.18,3.44276
2433.94,3.44242
2450.81,3.44208
2467.8,3.44174
2484.91,3.44141
2502.13,3.44109
2519.47,3.44077
2536.94,3.44045
2554.52,3.44014
2572.23,3.43983
2590.06,3.43953
2608.01,3.43923
2626.09,3.43894
2644.29,3.43865
2662.62,3.43836
2681.08,3.43808
2699.67,3.4378
2718.38,3.43753
2737.22,3.43726
2756.19,3.43699
2775.3,3.43673
2794.54,3.43647
2813.91,3.43621
2833.41,3.43596
2853.05,3.43571
2872.83,3.43547
2892.74,3.43523
2912.79,3.43499
2932.99,3.43475
2953.32,3.43452
2973.79,3.43429
2994.4,3.43407
3015.16,3.43385
3036.06,3.43363
3057.1,3.43341
3078.29,3.4332
3099.63,3.43299
3121.12,3.43278
3142.75,3.43258
3164.53,3.43238
3186.47,3.43218
3208.56,3.43198
3230.8,3.43179
3253.19,3.4316
3275.74,3.43141
3298.45,3.43123
3321.31,3.43105
3344.34,3.43087
3367.52,3.43069
3390.86,3.43052
3414.36,3.43034
3438.03,3.43017
3461.86,3.43001
3485.86,3.42984
3510.02,3.42968
3534.35,3.42952
3558.85,3.42936
3583.52,3.4292
3608.36,3.42905
3633.37,3.4289
3658.56,3.42875
3683.92,3.4286
3709.45,3.42845
3735.17,3.42831
3761.06,3.42817
3787.13,3.42803
3813.38,3.42789
3839.81,3.42775
3866.43,3.42762
3893.23,3.42749
3920.21,3.42736
3947.39,3.42723
3974.75,3.4271
4002.3,3.42698
4030.04,3.42685
4057.98,3.42673
4086.11,3.42661
4114.43,3.4265
4142.95,3.42638
4171.67,3.42626
4200.59,3.42615
4229.7,3.42604
4259.02,3.42593
4288.54,3.42582
4318.27,3.42571
4348.2,3.42561
4378.34,3.4255
4408.69,3.4254
4439.25,3.4253
4470.02,3.4252
4501.01,3.4251
4532.21,3.425
4563.62,3.42491
4595.26,3.42481
4627.11,3.42472
4659.18,3.42463
4691.48,3.42453
4724,3.42444
4756.75,3.42436
4789.72,3.42427
4822.92,3.42418
4856.35,3.4241
4890.01,3.42401
4923.91,3.42393
4958.04,3.42385
4992.41,3.42377
5027.01,3.42369
5061.86,3.42361
5096.94,3.42354
5132.27,3.42346
5167.85,3.42339
5203.67,3.42331
5239.74,3.42324
5276.06,3.42317
5312.63,3.4231
5349.46,3.42303
5386.54,3.42296
5423.88,3.42289
5461.47,3.42282
5499.33,3.42275
5537.45,3.42269
5575.83,3.42262
5614.48,3.42256
5653.4,3.4225
5692.59,3.42244
5732.05,3.42238
5771.78,3.42231
5811.79,3.42226
5852.07,3.4222
5892.64,3.42214
5933.49,3.42208
5974.61,3.42202
6016.03,3.42197
6057.73,3.42191
6099.72,3.42186
6142,3.42181
6184.58,3.42175
6227.44,3.4217
6270.61,3.42165
6314.08,3.4216
6357.84,3.42155
6401.91,3.4215
6446.29,3.42145
6490.97,3.4214
6535.97,3.42135
6581.27,3.4213
6626.89,3.42125
6672.83,3.42121
6719.08,3.42116
6765.66,3.42111
6812.55,3.42107
6859.78,3.42103
6907.32,3.42099
6955.2,3.42096
7003.42,3.42092
7051.96,3.42088
7100.84,3.42084
7150.06,3.4208
7199.63,3.42076
7249.53,3.42072
7299.78,3.42068
7350.38,3.42065
7401.33,3.42061
7452.64,3.42057
7504.29,3.42053
7556.31,3.42049
7608.69,3.42046
7661.43,3.42043
7714.54,3.4204
7768.01,3.42037
7821.86,3.42033
7876.08,3.4203
7930.67,3.42027
7985.64,3.42023
8041,3.4202
8096.73,3.42017
8152.86,3.42013
8209.37,3.4201
8266.28,3.42006
8323.57,3.42003
8381.27,3.42
8439.37,3.41997
8497.87,3.41994
8556.77,3.41991
8616.08,3.41988
8675.81,3.41986
8735.94,3.41983
8796.5,3.41981
8857.47,3.41979
8918.87,3.41977
8980.69,3.41975
9042.94,3.41973
9105.63,3.41971
9168.74,3.41969
9232.3,3.41966
9296.29,3.41964
9360.73,3.41961
9425.62,3.41958
9490.95,3.41955
9556.74,3.41952
9622.99,3.41949
9689.69,3.41946
9756.86,3.41943
9824.49,3.41941
9892.59,3.41938
9961.16,3.41935
10030.2,3.41933
10099.7,3.4193
10169.7,3.41928
10240.2,3.41927
10311.2,3.41925
10382.7,3.41924
10454.7,3.41923
10527.1,3.41921
10600.1,3.41919
10673.6,3.41917
10747.6,3.41914
10822.1,3.41912
10897.1,3.41911
10972.6,3.41909
11048.7,3.41909
11125.3,3.41909
11202.4,3.41908
11280,3.41908
11358.2,3.41908
11436.9,3.41908
11516.2,3.41907
11596,3.41907
11676.4,3.41906
11757.4,3.41903
11838.9,3.41901
11920.9,3.41898
12003.6,3.41894
12086.8,3.41892
12170.5,3.41892
12254.9,3.41893
12339.8,3.41893
12425.4,3.41891
12511.5,3.41888
12598.2,3.41886
12685.6,3.41885
12773.5,3.41884
12862,3.41883
12951.2,3.41882
13041,3.41881
13131.4,3.4188
13222.4,3.41878
13314,3.41878
13406.3,3.41877
13499.3,3.41879
13592.8,3.41883
13687.1,3.41886
13781.9,3.41887
13877.5,3.41888
13973.7,3.41887
14070.5,3.41884
14168,3.41879
14266.3,3.41875
14365.1,3.4187
14464.7,3.41868
14565,3.41866
14665.9,3.41863
14767.6,3.4186
14870,3.41857
14973,3.41855
15007.6,3.41854