File: Si_sus_bias/materials/SiO2.csv
wavelength (nm),refractive index
300.193,1.50212
304.369,1.50091
308.603,1.49975
312.896,1.49862
317.249,1.49754
321.662,1.49648
326.137,1.49546
330.674,1.49448
335.274,1.49352
339.938,1.4926
344.667,1.4917
349.462,1.49084
354.323,1.49
359.253,1.48918
364.25,1.4884
369.317,1.48763
374.455,1.48689
379.664,1.48617
384.946,1.48548
390.301,1.4848
395.731,1.48415
401.236,1.48351
406.818,1.4829
412.477,1.4823
418.215,1.48172
424.033,1.48115
429.932,1.48061
435.913,1.48007
441.977,1.47956
448.126,1.47906
454.36,1.47857
460.681,1.47809
467.089,1.47763
473.587,1.47718
480.175,1.47675
486.855,1.47633
493.628,1.47591
500.495,1.47551
507.458,1.47512
514.517,1.47474
521.675,1.47437
528.932,1.47401
536.29,1.47366
543.751,1.47331
551.315,1.47298
558.985,1.47265
566.761,1.47234
574.645,1.47203
582.639,1.47172
590.745,1.47143
598.963,1.47114
607.295,1.47086
615.744,1.47058
624.309,1.47031
632.994,1.47005
641.8,1.46979
650.729,1.46953
659.781,1.46929
668.96,1.46904
678.266,1.46881
687.701,1.46857
697.268,1.46834
706.968,1.46812
716.803,1.4679
726.775,1.46768
736.885,1.46747
747.136,1.46726
757.53,1.46705
768.068,1.46685
778.753,1.46665
789.587,1.46645
800.571,1.46625
811.708,1.46606
823,1.46587
834.449,1.46568
846.057,1.4655
857.827,1.46531
869.761,1.46513
881.86,1.46495
894.128,1.46477
906.567,1.46459
919.179,1.46441
931.966,1.46423
944.93,1.46406
958.076,1.46388
971.404,1.46371
984.918,1.46353
998.619,1.46336
1012.51,1.46318
1026.6,1.46301
1040.88,1.46283
1055.36,1.46266
1070.04,1.46248
1084.93,1.4623
1100.02,1.46213
1115.32,1.46195
1130.84,1.46177
1146.57,1.46159
1162.52,1.46141
1178.69,1.46122
1195.09,1.46104
1211.71,1.46085
1228.57,1.46066
1245.66,1.46047
1262.99,1.46028
1280.56,1.46008
1298.37,1.45988
1316.44,1.45968
1334.75,1.45948
1353.32,1.45927
1372.14,1.45906
1391.23,1.45884
1410.59,1.45863
1430.21,1.4584
1450.11,1.45818
1470.28,1.45795
1490.73,1.45771
1511.47,1.45747
1532.5,1.45723
1553.82,1.45698
1575.43,1.45673
1597.35,1.45646
1619.57,1.4562
1642.1,1.45593
1664.94,1.45565
1688.11,1.45536
1711.59,1.45507
1735.4,1.45477
1759.54,1.45447
1784.02,1.45415
1808.84,1.45383
1834,1.4535
1859.52,1.45316
1885.38,1.45282
1911.61,1.45246
1938.21,1.4521
1965.17,1.45172
1992.51,1.45133
2020.23,1.45094
2048.33,1.45053
2076.82,1.45011
2105.72,1.44968
2135.01,1.44923
2164.71,1.44877
2194.82,1.4483
2225.36,1.44781
2256.32,1.44731
2287.7,1.44679
2319.53,1.44626
2351.8,1.4457
2384.51,1.44513
2417.69,1.44454
2451.32,1.44392
2485.42,1.44329
2520,1.44263
2555.05,1.44194
2590.6,1.44122
2626.64,1.44045
2663.18,1.43955
2700.22,1.43842
2737.79,1.43842
2775.87,1.43814
2814.49,1.43759
2853.64,1.43682
2893.34,1.43592
2933.59,1.43499
2974.4,1.43408
3015.78,1.43316
3057.74,1.4322
3100.27,1.43121
3143.4,1.43017
3187.13,1.42908
3231.47,1.42796
3276.42,1.42677
3322,1.42551
3368.22,1.4241
3415.07,1.423
3462.58,1.42198
3510.75,1.42069
3559.59,1.41914
3609.11,1.41759
3659.32,1.41601
3710.22,1.41439
3761.84,1.41271
3814.17,1.41096
3867.23,1.40915
3921.03,1.40726
3975.57,1.4053
4030.88,1.40325
4086.96,1.40112
4143.81,1.39889
4201.46,1.39655
4259.9,1.3941
4319.17,1.39148
4379.25,1.38888
4440.17,1.3865
4501.94,1.38364
4564.57,1.38048
4628.07,1.37717
4692.45,1.3736
4757.73,1.36975
4823.92,1.3657
4891.02,1.3617
4959.07,1.35796
5028.05,1.35439
5098,1.35061
5168.92,1.34634
5240.83,1.34186
5313.73,1.33768
5387.66,1.3339
5462.61,1.32994
5538.6,1.32512
5615.65,1.3192
5693.77,1.31247
5772.98,1.3053
5853.29,1.29789
5934.71,1.29018
6017.28,1.28214
6100.98,1.27404
6185.86,1.26544
6271.91,1.25553
6359.16,1.2444
6447.63,1.23211
6537.32,1.21853
6628.27,1.20355
6720.47,1.18715
6813.96,1.16911
6908.76,1.14897
7004.87,1.1263
7102.31,1.10132
7201.12,1.07413
7301.29,1.04248
7402.87,1.00323
7505.85,0.956149
7610.27,0.894303
7716.14,0.816285
7823.48,0.705444
7932.31,0.583275
8042.66,0.510398
8154.55,0.515594
8267.99,0.551639
8383.01,0.583478
8499.63,0.602719
8617.87,0.615214
8737.76,0.614152
8859.31,0.585299
8982.55,0.615013
9107.51,0.885061
9234.21,1.37559
9362.67,1.86211
9492.92,2.22719
9624.98,2.52165
9758.88,2.74221
9894.64,2.83162
9986.19,2.81263