File: SOI_220nm_Passive/materials/SiO2.csv
wavelength (nm), refractive index
1499.38,1.449017
1502.83,1.448972
1506.29,1.448927
1509.74,1.448882
1513.19,1.448837
1516.64,1.448792
1520.09,1.448747
1523.55,1.448702
1527,1.448657
1530.45,1.448611
1533.91,1.448566
1537.36,1.44852
1540.82,1.448474
1544.27,1.448429
1547.73,1.448383
1551.18,1.448337
1554.64,1.448292
1558.09,1.448246
1561.55,1.4482
1565.01,1.448154
1568.46,1.448108
1571.92,1.448062
1575.38,1.448016
1578.84,1.44797
1582.3,1.447924
1585.76,1.447877
1589.21,1.447831
1592.67,1.447785
1596.13,1.447738
1599.59,1.447691