File: SiN_300nm/materials/SiN.csv
wavelength (nm), refractive index
192.182,2.6617
196.97,2.622259
201.759,2.582362
206.548,2.542002
211.338,2.501173
216.128,2.460593
220.919,2.426076
225.709,2.391545
230.5,2.364046
235.292,2.336247
240.084,2.313661
244.876,2.29214
249.668,2.272425
254.46,2.256328
259.253,2.240116
264.046,2.226616
268.84,2.214743
273.633,2.202805
278.427,2.19254
283.2211,2.183395
288.015,2.17421
292.81,2.165519
297.604,2.158708
302.399,2.151876
307.194,2.145022
311.989,2.139132
316.784,2.13462
321.579,2.130099
326.374,2.125568
331.17,2.121027
335.965,2.116476
340.76,2.111916
345.556,2.107345
350.352,2.102765
355.147,2.098522
359.943,2.095861
364.738,2.093196
369.534,2.090528
374.33,2.087857
379.125,2.085181
383.921,2.082503
388.716,2.079821
393.512,2.077136
398.307,2.074448
403.102,2.071756
407.897,2.06906
412.692,2.066361
417.487,2.064751
422.282,2.063308
427.076,2.061865
431.871,2.06042
436.665,2.058975
441.459,2.057528
446.253,2.056081
451.047,2.054632
455.84,2.053183
460.633,2.051733
465.426,2.050282
470.219,2.048829
475.011,2.047376
479.803,2.045922
484.595,2.044467
489.386,2.043011
494.178,2.041554
498.968,2.040547
503.759,2.039816
508.549,2.039085
513.339,2.038354
518.128,2.037622
522.917,2.036891
527.706,2.036159
532.494,2.035427
537.282,2.034694
542.069,2.033962
546.856,2.033229
551.642,2.032496
556.428,2.031763
561.214,2.03103
565.999,2.030296
570.783,2.029562
575.567,2.028829
580.35,2.028095
585.133,2.02736
589.915,2.026626
594.697,2.025892
599.478,2.025157
604.259,2.024422
609.039,2.023687
613.818,2.022952
618.597,2.022216
623.375,2.021772
628.1521,2.02145
632.929,2.021127
637.705,2.020804
642.48,2.020482
647.255,2.020159
652.029,2.019837
656.802,2.019514
661.574,2.019192
666.346,2.018869
671.117,2.018546
675.887,2.018224
680.657,2.017901
685.425,2.017578
690.193,2.017256
694.96,2.016933
699.726,2.016611
704.492,2.016288
709.256,2.015965
714.02,2.015643
718.782,2.01532
723.544,2.014998
728.305,2.014675
733.065,2.014353
737.824,2.01403
742.582,2.013708
747.339,2.013385
752.096,2.013063
756.851,2.01274
761.605,2.012418
766.358,2.012095
771.111,2.011773
775.862,2.011451
780.612,2.011128
785.361,2.010806
790.109,2.010484
794.856,2.010161
799.602,2.009839
804.347,2.009516
809.091,2.009194
813.833,2.008872
818.575,2.00855
823.315,2.008228
828.054,2.007966
832.792,2.007852
837.529,2.007738
842.265,2.007623
846.999,2.007509
851.732,2.007395
856.464,2.007281
861.195,2.007166
865.925,2.007052
870.653,2.006938
875.38,2.006824
880.106,2.00671
884.8302,2.006596
889.553,2.006482
894.275,2.006368
898.995,2.006254
903.715,2.00614
908.432,2.006026
913.149,2.005912
917.864,2.005798
922.577,2.005684
927.29,2.00557
932,2.005456
936.71,2.005342
941.418,2.005229
946.124,2.005115
950.829,2.005001
955.533,2.004888
960.235,2.004774
964.935,2.00466
969.634,2.004547
974.332,2.004433
979.028,2.00432
983.722,2.004206
988.415,2.004093
993.107,2.003979
997.796,2.003866
1015.65,2.003434
1025.89,2.003186
1036.13,2.002939
1046.37,2.002691
1056.62,2.002443
1066.87,2.002195
1077.12,2.001947
1087.37,2.001698
1097.63,2.00145
1107.88,2.001202
1118.14,2.000953
1128.4,2.000705
1138.67,2.000456
1148.93,2.000208
1159.2,1.999959
1169.47,1.99971
1179.74,1.999461
1190.01,1.999212
1200.29,1.998963
1210.57,1.998714
1220.85,1.998464
1231.13,1.998215
1241.42,1.997966
1251.71,1.997716
1262,1.997466
1272.29,1.997217
1282.58,1.996967
1292.88,1.996717
1303.18,1.996467
1313.49,1.996217
1323.79,1.995967
1334.1,1.995716
1344.41,1.995466
1354.72,1.995216
1365.04,1.994965
1375.36,1.994714
1385.68,1.994464
1396,1.994213
1406.33,1.993962
1416.65,1.993711
1426.99,1.99346
1437.32,1.993209
1447.66,1.992957
1458,1.992706
1468.34,1.992454
1478.68,1.992203
1489.03,1.991951
1499.38,1.991699
1509.74,1.991447
1520.09,1.991195
1530.45,1.990943
1540.82,1.990691
1551.18,1.990438
1561.55,1.990186
1571.92,1.989933
1582.3,1.989681
1592.67,1.989428
1603.05,1.989175
1613.44,1.988922
1623.82,1.988669
1634.21,1.988416
1644.61,1.988163
1655,1.987909
1665.4,1.987656
1675.8,1.987402
1686.21,1.987148
1696.62,1.986894