File: SiN_300nm/materials/SiO2.csv
wavelength (nm),refractive index
200,1.55179
206.2,1.54352
212.4,1.53599
218.6,1.52988
224.8,1.52442
231,1.51952
237.2,1.51517
243.4,1.51128
249.6,1.50771
255.8,1.50456
262,1.50154
268.2,1.49876
274.4,1.49626
280.6,1.49395
286.8,1.49184
293,1.48986
299.2,1.48802
305.4,1.48636
311.6,1.48482
317.8,1.48334
324,1.48192
330.2,1.48054
336.4,1.47933
342.6,1.47818
348.8,1.47709
355,1.47608
361.2,1.4751
367.4,1.4742
373.6,1.47338
379.8,1.47258
386,1.4718
392.2,1.47105
398.4,1.47032
404.6,1.46962
410.8,1.469
417,1.4684
423.2,1.46782
429.4,1.46726
435.6,1.46671
441.8,1.46622
448,1.46574
454.2,1.46527
460.4,1.46482
466.6,1.46438
472.8,1.46397
479,1.46357
485.2,1.46319
491.4,1.46282
497.6,1.46247
503.8,1.46213
510,1.4618
516.2,1.46149
522.4,1.46118
528.6,1.46088
534.8,1.46059
541,1.46031
547.2,1.46003
553.4,1.45978
559.6,1.45952
565.8,1.45928
572,1.45904
578.2,1.4588
584.4,1.45858
590.6,1.45836
596.8,1.45816
603,1.45795
609.2,1.45775
615.4,1.45756
621.6,1.45737
627.8,1.45718
634,1.457
640.2,1.45681
646.4,1.45664
652.6,1.45647
658.8,1.45631
665,1.45615
671.2,1.45599
677.4,1.45584
683.6,1.45569
689.8,1.45554
696,1.45539
702.2,1.45525
708.4,1.45511
714.6,1.45497
720.8,1.45484
727,1.45471
733.2,1.45458
739.4,1.45446
745.6,1.45433
751.8,1.45421
758,1.45409
764.2,1.45397
770.4,1.45385
776.6,1.45374
782.8,1.45363
789,1.45352
795.2,1.45341
801.4,1.4533
807.6,1.45319
813.8,1.45309
820,1.45299
826.2,1.45289
832.4,1.45279
838.6,1.45269
844.8,1.45259
851,1.4525
857.2,1.4524
863.4,1.45231
869.6,1.45221
875.8,1.45212
882,1.45203
888.2,1.45194
894.4,1.45185
900.6,1.45176
906.8,1.45166
913,1.45157
919.2,1.45148
925.4,1.4514
931.6,1.45131
937.8,1.45122
944,1.45114
950.2,1.45105
956.4,1.45097
962.6,1.45089
968.8,1.45081
975,1.45073
981.2,1.45065
987.4,1.45057
993.6,1.4505
999.8,1.45042
1006,1.45034
1012.2,1.45027
1018.4,1.45019
1024.6,1.45011
1030.8,1.45003
1037,1.44996
1043.2,1.44988
1049.4,1.44981
1055.6,1.44973
1061.8,1.44966
1068,1.44958
1074.2,1.44951
1080.4,1.44944
1086.6,1.44937
1092.8,1.44929
1099,1.44922
1105.2,1.44915
1111.4,1.44908
1117.6,1.449
1123.8,1.44893
1130,1.44886
1136.2,1.44878
1142.4,1.44869
1148.6,1.44861
1154.8,1.44853
1161,1.44845
1167.2,1.44837
1173.4,1.44829
1179.6,1.44821
1185.8,1.44813
1192,1.44805
1198.2,1.44798
1204.4,1.4479
1210.6,1.44783
1216.8,1.44775
1223,1.44768
1229.2,1.44761
1235.4,1.44754
1241.6,1.44746
1247.8,1.44739
1254,1.44732
1260.2,1.44726
1266.4,1.44719
1272.6,1.44712
1278.8,1.44705
1285,1.44699
1291.2,1.44692
1297.4,1.44685
1303.6,1.44679
1309.8,1.44673
1316,1.44666
1322.2,1.4466
1328.4,1.44654
1334.6,1.44648
1340.8,1.44642
1347,1.44636
1353.2,1.4463
1359.4,1.44624
1365.6,1.44617
1371.8,1.4461
1378,1.44603
1384.2,1.44596
1390.4,1.44589
1396.6,1.44582
1402.8,1.44575
1409,1.44567
1415.2,1.4456
1421.4,1.44552
1427.6,1.44545
1433.8,1.44538
1440,1.4453
1446.2,1.44523
1452.4,1.44516
1458.6,1.44509
1464.8,1.44502
1471,1.44495
1477.2,1.44488
1483.4,1.4448
1489.6,1.44473
1495.8,1.44466
1502,1.44458
1508.2,1.44451
1514.4,1.44444
1520.6,1.44437
1526.8,1.4443
1533,1.44422
1539.2,1.44414
1545.4,1.44406
1551.6,1.44398
1557.8,1.4439
1564,1.44382
1570.2,1.44375
1576.4,1.44367
1582.6,1.44359
1588.8,1.44351
1595,1.44344
1601.2,1.44336
1607.4,1.44329
1613.6,1.44321
1619.8,1.44314
1626,1.44307
1632.2,1.44299
1638.4,1.44292
1644.6,1.44285
1650.8,1.44278
1657,1.44271
1663.2,1.44264
1669.4,1.44256
1675.6,1.44248
1681.8,1.4424
1688,1.44232
1694.2,1.44225
1700.4,1.44216
1706.6,1.44208
1712.8,1.442
1719,1.44191
1725.2,1.44183
1731.4,1.44174
1737.6,1.44166
1743.8,1.44158
1750,1.4415
1756.2,1.44141
1762.4,1.44133
1768.6,1.44125
1774.8,1.44117
1781,1.44109
1787.2,1.44101
1793.4,1.44094
1799.6,1.44086
1805.8,1.44078
1812,1.4407
1818.2,1.44061
1824.4,1.44052
1830.6,1.44043
1836.8,1.44034
1843,1.44025
1849.2,1.44016
1855.4,1.44007
1861.6,1.43998
1867.8,1.43989
1874,1.4398
1880.2,1.43971
1886.4,1.43963
1892.6,1.43954
1898.8,1.43946
1905,1.43937
1911.2,1.43929
1917.4,1.4392
1923.6,1.43912
1929.8,1.43904
1936,1.43895
1942.2,1.43887
1948.4,1.43879
1954.6,1.43871
1960.8,1.43863
1967,1.43855
1973.2,1.43846
1979.4,1.43837
1985.6,1.43827
1991.8,1.43818
1998,1.43809
2000,1.43806