File: Ge_on_Si/materials/Ge.csv
wavelength (nm), refractive index
2000,4.10845
2120,4.09481
2240,4.08375
2360,4.07462
2480,4.06697
2600,4.06049
2720,4.05493
2840,4.05013
2960,4.04596
3080,4.04229
3200,4.03906
3320,4.03619
3440,4.03364
3560,4.03135
3680,4.0293
3800,4.02744
3920,4.02576
4040,4.02423
4160,4.02283
4280,4.02156
4400,4.02039
4520,4.01931
4640,4.01832
4760,4.01741
4880,4.01656
5000,4.01578
5120,4.01505
5240,4.01437
5360,4.01374
5480,4.01314
5600,4.01259
5720,4.01207
5840,4.01159
5960,4.01113
6080,4.0107
6200,4.01029
6320,4.00991
6440,4.00955
6560,4.00921
6680,4.00889
6800,4.00858
6920,4.00829
7040,4.00801
7160,4.00775
7280,4.0075
7400,4.00726
7520,4.00704
7640,4.00682
7760,4.00662
7880,4.00642
8000,4.00623
8120,4.00605
8240,4.00588
8360,4.00571
8480,4.00556
8600,4.0054
8720,4.00526
8840,4.00512
8960,4.00498
9080,4.00485
9200,4.00473
9320,4.00461
9440,4.00449
9560,4.00438
9680,4.00427
9800,4.00417
9920,4.00407
10040,4.00397
10160,4.00388
10280,4.00379
10400,4.0037
10520,4.00361
10640,4.00353
10760,4.00345
10880,4.00337
11000,4.00329
11120,4.00322
11240,4.00315
11360,4.00308
11480,4.00301
11600,4.00295
11720,4.00288
11840,4.00282
11960,4.00276
12080,4.0027
12200,4.00264
12320,4.00258
12440,4.00253
12560,4.00247
12680,4.00242
12800,4.00237
12920,4.00232
13040,4.00227
13160,4.00222
13280,4.00217
13400,4.00213
13520,4.00208
13640,4.00203
13760,4.00199
13880,4.00195
14000,4.0019