File: Ge_on_Si/materials/SOI.csv
wavelength (nm), refractive index
1499.38,3.485073
1502.83,3.484759
1506.29,3.484445
1509.74,3.484131
1513.19,3.48382
1516.64,3.483518
1520.09,3.483216
1523.55,3.482914
1527,3.482612
1530.45,3.48231
1533.91,3.482018
1537.36,3.481727
1540.82,3.481436
1544.27,3.481146
1547.73,3.480855
1551.18,3.480568
1554.64,3.480289
1558.09,3.480009
1561.55,3.479729
1565.01,3.479449
1568.46,3.47917
1571.92,3.478897
1575.38,3.478628
1578.84,3.478359
1582.3,3.47809
1585.76,3.477821
1589.21,3.477552
1592.67,3.477292
1596.13,3.477034
1599.59,3.476776